%% logfile from robot Freja (4)
% Freja (4)
%  1    time 0.000 sec
%  2  3 Motor voltage [V] left, right: 3.00 3.00
%  4  5 Motor current left, right [A]: 0.124 0.134
%  6  7 Wheel velocity [m/s] left, right: 0.0000 0.0000
0.000 3.00 3.00 0.005 -0.005 0.0000 0.0000 
0.001 3.00 3.00 0.169 0.026 0.0000 0.0000 
0.002 3.00 3.00 0.531 0.267 0.0000 0.0000 
0.003 3.00 3.00 0.720 0.557 0.0000 0.0000 
0.004 3.00 3.00 0.786 0.733 0.0000 0.0000 
0.005 3.00 3.00 0.779 0.833 0.0000 0.0000 
0.006 3.00 3.00 0.832 0.891 0.0000 0.0000 
0.007 3.00 3.00 0.863 0.911 0.0000 0.0000 
0.008 3.00 3.00 0.804 0.918 0.0000 0.0000 
0.009 3.00 3.00 0.817 0.855 0.0000 0.0000 
0.010 3.00 3.00 0.874 0.728 0.1410 0.0000 
0.011 3.00 3.00 0.768 0.691 0.1410 0.1575 
0.012 3.00 3.00 0.702 0.672 0.1928 0.1575 
0.013 3.00 3.00 0.692 0.652 0.1928 0.1976 
0.014 3.00 3.00 0.649 0.637 0.2086 0.2327 
0.015 3.00 3.00 0.619 0.633 0.2465 0.2327 
0.016 3.00 3.00 0.620 0.623 0.2465 0.2685 
0.017 3.00 3.00 0.626 0.585 0.2858 0.2987 
0.018 3.00 3.00 0.717 0.562 0.3116 0.2987 
0.019 3.00 3.00 0.645 0.531 0.3326 0.3216 
0.020 3.00 3.00 0.668 0.515 0.3326 0.3361 
0.021 3.00 3.00 0.485 0.485 0.3545 0.3569 
0.022 3.00 3.00 0.488 0.511 0.3735 0.3747 
0.023 3.00 3.00 0.528 0.539 0.3882 0.3846 
0.024 3.00 3.00 0.517 0.540 0.3985 0.3946 
0.025 3.00 3.00 0.592 0.481 0.4227 0.4145 
0.026 3.00 3.00 0.459 0.461 0.4419 0.4283 
0.027 3.00 3.00 0.489 0.440 0.4638 0.4391 
0.028 3.00 3.00 0.428 0.454 0.4773 0.4433 
0.029 3.00 3.00 0.448 0.499 0.4719 0.4727 
0.030 3.00 3.00 0.388 0.418 0.4692 0.4760 
0.031 3.00 3.00 0.355 0.371 0.4772 0.4809 
0.032 3.00 3.00 0.547 0.372 0.5061 0.4963 
0.033 3.00 3.00 0.398 0.371 0.5154 0.5105 
0.034 3.00 3.00 0.436 0.348 0.5177 0.5197 
0.035 3.00 3.00 0.348 0.336 0.5431 0.5329 
0.036 3.00 3.00 0.356 0.312 0.5451 0.5353 
0.037 3.00 3.00 0.364 0.311 0.5526 0.5368 
0.038 3.00 3.00 0.297 0.317 0.5735 0.5490 
0.039 3.00 3.00 0.383 0.317 0.5793 0.5606 
0.040 3.00 3.00 0.391 0.341 0.5951 0.5681 
0.041 3.00 3.00 0.340 0.389 0.5993 0.5809 
0.042 3.00 3.00 0.307 0.341 0.6025 0.5907 
0.043 3.00 3.00 0.368 0.294 0.6162 0.5902 
0.044 3.00 3.00 0.314 0.290 0.6267 0.6028 
0.045 3.00 3.00 0.356 0.276 0.6288 0.6053 
0.046 3.00 3.00 0.286 0.268 0.6433 0.6168 
0.047 3.00 3.00 0.264 0.258 0.6445 0.6220 
0.048 3.00 3.00 0.246 0.263 0.6530 0.6218 
0.049 3.00 3.00 0.292 0.269 0.6593 0.6315 
0.050 3.00 3.00 0.240 0.240 0.6663 0.6421 
0.051 3.00 3.00 0.259 0.279 0.6710 0.6442 
0.052 3.00 3.00 0.275 0.297 0.6701 0.6541 
0.053 3.00 3.00 0.215 0.262 0.6704 0.6568 
0.054 3.00 3.00 0.197 0.225 0.6759 0.6628 
0.055 3.00 3.00 0.325 0.213 0.6842 0.6699 
0.056 3.00 3.00 0.246 0.221 0.6905 0.6756 
0.057 3.00 3.00 0.151 0.210 0.6897 0.6815 
0.058 3.00 3.00 0.204 0.237 0.7049 0.6781 
0.059 3.00 3.00 0.227 0.218 0.7113 0.6898 
0.060 3.00 3.00 0.189 0.215 0.7144 0.6939 
0.061 3.00 3.00 0.246 0.245 0.7162 0.6997 
0.062 3.00 3.00 0.198 0.229 0.7221 0.7061 
0.063 3.00 3.00 0.198 0.193 0.7310 0.7164 
0.064 3.00 3.00 0.237 0.161 0.7285 0.7171 
0.065 3.00 3.00 0.241 0.164 0.7392 0.7185 
0.066 3.00 3.00 0.224 0.153 0.7396 0.7223 
0.067 3.00 3.00 0.192 0.151 0.7468 0.7206 
0.068 3.00 3.00 0.150 0.162 0.7488 0.7262 
0.069 3.00 3.00 0.116 0.168 0.7502 0.7260 
0.070 3.00 3.00 0.193 0.215 0.7578 0.7322 
0.071 3.00 3.00 0.204 0.185 0.7601 0.7350 
0.072 3.00 3.00 0.131 0.164 0.7697 0.7377 
0.073 3.00 3.00 0.142 0.137 0.7683 0.7413 
0.074 3.00 3.00 0.206 0.156 0.7721 0.7463 
0.075 3.00 3.00 0.166 0.151 0.7738 0.7574 
0.076 3.00 3.00 0.106 0.156 0.7777 0.7482 
0.077 3.00 3.00 0.120 0.153 0.7813 0.7604 
0.078 3.00 3.00 0.273 0.153 0.7823 0.7638 
0.079 3.00 3.00 0.212 0.185 0.7842 0.7616 
0.080 3.00 3.00 0.198 0.165 0.7906 0.7644 
0.081 3.00 3.00 0.114 0.130 0.7942 0.7692 
0.082 3.00 3.00 0.084 0.124 0.7973 0.7741 
0.083 3.00 3.00 0.086 0.111 0.7941 0.7773 
0.084 3.00 3.00 0.197 0.141 0.8060 0.7778 
0.085 3.00 3.00 0.154 0.158 0.8002 0.7862 
0.086 3.00 3.00 0.113 0.150 0.8036 0.7848 
0.087 3.00 3.00 0.101 0.155 0.7990 0.7876 
0.088 3.00 3.00 0.143 0.151 0.8031 0.7850 
0.089 3.00 3.00 0.202 0.113 0.8009 0.8003 
0.090 3.00 3.00 0.121 0.103 0.8083 0.7967 
0.091 3.00 3.00 0.078 0.126 0.8089 0.8012 
0.092 3.00 3.00 0.073 0.118 0.8098 0.7978 
0.093 3.00 3.00 0.151 0.116 0.8122 0.7969 
0.094 3.00 3.00 0.246 0.116 0.8151 0.7994 
0.095 3.00 3.00 0.161 0.134 0.8160 0.8030 
0.096 3.00 3.00 0.070 0.141 0.8185 0.8029 
0.097 3.00 3.00 0.113 0.130 0.8201 0.8035 
0.098 3.00 3.00 0.187 0.127 0.8225 0.8054 
0.099 3.00 3.00 0.173 0.126 0.8234 0.8066 
0.100 3.00 3.00 0.118 0.122 0.8265 0.8084 
0.101 3.00 3.00 0.116 0.125 0.8263 0.8111 
0.102 3.00 3.00 0.192 0.115 0.8282 0.8149 
0.103 3.00 3.00 0.124 0.122 0.8307 0.8167 
0.104 3.00 3.00 0.097 0.138 0.8321 0.8165 
0.105 3.00 3.00 0.207 0.119 0.8341 0.8189 
0.106 3.00 3.00 0.157 0.105 0.8385 0.8212 
0.107 3.00 3.00 0.033 0.098 0.8382 0.8230 
0.108 3.00 3.00 0.022 0.104 0.8431 0.8243 
0.109 3.00 3.00 0.158 0.118 0.8430 0.8276 
0.110 3.00 3.00 0.147 0.108 0.8445 0.8277 
0.111 3.00 3.00 0.072 0.109 0.8452 0.8281 
0.112 3.00 3.00 0.040 0.114 0.8489 0.8296 
0.113 3.00 3.00 0.098 0.071 0.8482 0.8325 
0.114 3.00 3.00 0.155 0.069 0.8491 0.8329 
0.115 3.00 3.00 0.044 0.077 0.8499 0.8357 
0.116 3.00 3.00 0.055 0.086 0.8520 0.8354 
0.117 3.00 3.00 0.152 0.089 0.8528 0.8349 
0.118 3.00 3.00 0.135 0.089 0.8534 0.8379 
0.119 3.00 3.00 0.047 0.127 0.8545 0.8381 
0.120 3.00 3.00 0.109 0.140 0.8556 0.8377 
0.121 3.00 3.00 0.138 0.111 0.8564 0.8078 
0.122 3.00 3.00 0.086 0.096 0.8559 0.8384 
0.123 3.00 3.00 0.027 0.100 0.8585 0.8393 
0.124 3.00 3.00 0.036 0.100 0.8582 0.8388 
0.125 3.00 3.00 0.145 0.088 0.8572 0.8438 
0.126 3.00 3.00 0.108 0.078 0.8575 0.8441 
0.127 3.00 3.00 0.013 0.097 0.8594 0.8437 
0.128 3.00 3.00 0.063 0.106 0.8600 0.8425 
0.129 3.00 3.00 0.107 0.111 0.8638 0.8430 
0.130 3.00 3.00 0.095 0.098 0.8645 0.8467 
0.131 3.00 3.00 0.030 0.104 0.8661 0.8461 
0.132 3.00 3.00 0.023 0.126 0.8661 0.8488 
0.133 3.00 3.00 0.122 0.107 0.8671 0.8506 
0.134 3.00 3.00 0.158 0.095 0.8673 0.8517 
0.135 3.00 3.00 0.105 0.122 0.8654 0.8525 
0.136 3.00 3.00 0.059 0.102 0.8658 0.8556 
0.137 3.00 3.00 0.023 0.081 0.8666 0.8554 
0.138 3.00 3.00 0.024 0.070 0.8652 0.8581 
0.139 3.00 3.00 0.107 0.081 0.8670 0.8559 
0.140 3.00 3.00 0.185 0.079 0.8671 0.8557 
0.141 3.00 3.00 0.095 0.071 0.8669 0.8565 
0.142 3.00 3.00 0.021 0.096 0.8646 0.8582 
0.143 3.00 3.00 0.092 0.111 0.8622 0.8585 
0.144 3.00 3.00 0.170 0.100 0.8602 0.8588 
0.145 3.00 3.00 0.100 0.092 0.8594 0.8581 
0.146 3.00 3.00 0.125 0.088 0.8607 0.8571 
0.147 3.00 3.00 0.152 0.081 0.8610 0.8557 
0.148 3.00 3.00 0.097 0.065 0.8632 0.8596 
0.149 3.00 3.00 0.031 0.066 0.8604 0.8598 
0.150 3.00 3.00 0.112 0.095 0.8646 0.8589 
0.151 3.00 3.00 0.150 0.089 0.8651 0.8582 
0.152 3.00 3.00 0.111 0.069 0.8653 0.8610 
0.153 3.00 3.00 0.010 0.056 0.8688 0.8624 
0.154 3.00 3.00 0.002 0.089 0.8680 0.8622 
0.155 3.00 3.00 0.061 0.102 0.8707 0.8651 
0.156 3.00 3.00 0.133 0.077 0.8696 0.8636 
0.157 3.00 3.00 0.055 0.081 0.8726 0.8641 
0.158 3.00 3.00 0.098 0.082 0.8713 0.8648 
0.159 3.00 3.00 0.086 0.077 0.8729 0.8635 
0.160 3.00 3.00 0.044 0.054 0.8743 0.8674 
0.161 3.00 3.00 0.075 0.062 0.8756 0.8669 
0.162 3.00 3.00 0.166 0.048 0.8560 0.8669 
0.163 3.00 3.00 0.099 0.054 0.8783 0.8685 
0.164 3.00 3.00 0.044 0.072 0.8797 0.8677 
0.165 3.00 3.00 0.149 0.101 0.8777 0.8706 
0.166 3.00 3.00 0.094 0.109 0.8811 0.8693 
0.167 3.00 3.00 0.019 0.097 0.8808 0.8677 
0.168 3.00 3.00 0.010 0.074 0.8812 0.8690 
0.169 3.00 3.00 0.101 0.076 0.8797 0.8702 
0.170 3.00 3.00 0.144 0.077 0.8787 0.8706 
0.171 3.00 3.00 0.120 0.062 0.8756 0.8719 
0.172 3.00 3.00 0.040 0.073 0.8804 0.8738 
0.173 3.00 3.00 0.021 0.099 0.8805 0.8701 
0.174 3.00 3.00 0.083 0.104 0.8802 0.8707 
0.175 3.00 3.00 0.140 0.077 0.8842 0.8708 
0.176 3.00 3.00 0.129 0.081 0.8825 0.8723 
0.177 3.00 3.00 0.161 0.102 0.8853 0.8685 
0.178 3.00 3.00 0.084 0.084 0.8832 0.8717 
0.179 3.00 3.00 0.002 0.064 0.8840 0.8705 
0.180 3.00 3.00 0.037 0.088 0.8785 0.8721 
0.181 3.00 3.00 -0.002 0.082 0.8777 0.8755 
0.182 3.00 3.00 0.031 0.072 0.8776 0.8739 
0.183 3.00 3.00 0.059 0.062 0.8773 0.8770 
0.184 3.00 3.00 0.147 0.065 0.8795 0.8744 
0.185 3.00 3.00 0.064 0.075 0.8788 0.8719 
0.186 3.00 3.00 0.006 0.064 0.8785 0.8762 
0.187 3.00 3.00 0.018 0.095 0.8790 0.8747 
0.188 3.00 3.00 0.079 0.110 0.8788 0.8770 
0.189 3.00 3.00 0.115 0.097 0.8789 0.8763 
0.190 3.00 3.00 0.086 0.070 0.8795 0.8757 
0.191 3.00 3.00 0.056 0.066 0.8787 0.8764 
0.192 3.00 3.00 0.162 0.086 0.8780 0.8749 
0.193 3.00 3.00 0.130 0.081 0.8777 0.8779 
0.194 3.00 3.00 0.059 0.077 0.8787 0.8787 
0.195 3.00 3.00 0.033 0.100 0.8799 0.8752 
0.196 3.00 3.00 0.036 0.095 0.8830 0.8774 
0.197 3.00 3.00 0.072 0.066 0.8815 0.8746 
0.198 3.00 3.00 0.081 0.061 0.8827 0.8793 
0.199 3.00 3.00 0.107 0.086 0.8845 0.8780 
0.200 3.00 3.00 0.072 0.092 0.8831 0.8780 
0.201 3.00 3.00 0.120 0.069 0.8826 0.8792 
0.202 3.00 3.00 0.108 0.092 0.8802 0.8814 
0.203 3.00 3.00 0.082 0.088 0.8843 0.8800 
0.204 3.00 3.00 0.036 0.058 0.8826 0.8814 
0.205 3.00 3.00 0.059 0.047 0.8823 0.8846 
0.206 3.00 3.00 0.121 0.060 0.8809 0.8829 
0.207 3.00 3.00 0.075 0.059 0.8774 0.8825 
0.208 3.00 3.00 0.110 0.045 0.8775 0.8828 
0.209 3.00 3.00 0.076 0.075 0.8783 0.8828 
0.210 3.00 3.00 0.063 0.091 0.8784 0.8833 
0.211 3.00 3.00 0.101 0.088 0.8780 0.8820 
0.212 3.00 3.00 0.041 0.079 0.8789 0.8843 
0.213 3.00 3.00 0.032 0.066 0.8779 0.8841 
0.214 3.00 3.00 0.148 0.084 0.8789 0.8819 
0.215 3.00 3.00 0.136 0.070 0.8778 0.8853 
0.216 3.00 3.00 0.010 0.069 0.8780 0.8858 
0.217 3.00 3.00 0.055 0.098 0.8790 0.8755 
0.218 3.00 3.00 0.084 0.091 0.8820 0.8715 
0.219 3.00 3.00 0.102 0.069 0.8813 0.8721 
0.220 3.00 3.00 0.109 0.057 0.8816 0.8730 
0.221 3.00 3.00 0.107 0.080 0.8833 0.8735 
0.222 3.00 3.00 0.030 0.096 0.8829 0.8757 
0.223 3.00 3.00 0.045 0.075 0.8822 0.8744 
0.224 3.00 3.00 0.118 0.093 0.8826 0.8746 
0.225 3.00 3.00 0.063 0.111 0.8833 0.8755 
0.226 3.00 3.00 0.043 0.080 0.8854 0.8784 
0.227 3.00 3.00 0.070 0.067 0.8821 0.8775 
0.228 3.00 3.00 0.082 0.070 0.8855 0.8789 
0.229 3.00 3.00 0.062 0.061 0.8836 0.8813 
0.230 3.00 3.00 0.059 0.052 0.8839 0.8846 
0.231 3.00 3.00 0.253 0.083 0.8839 0.8848 
0.232 3.00 3.00 0.147 0.120 0.8842 0.8852 
0.233 3.00 3.00 0.067 0.100 0.8824 0.8837 
0.234 3.00 3.00 0.008 0.065 0.8848 0.8861 
0.235 3.00 3.00 0.050 0.067 0.8836 0.8852 
0.236 3.00 3.00 0.139 0.079 0.8845 0.8866 
0.237 3.00 3.00 0.099 0.080 0.8850 0.8888 
0.238 3.00 3.00 0.128 0.060 0.8841 0.8888 
0.239 3.00 3.00 0.119 0.082 0.8847 0.8873 
0.240 3.00 3.00 0.139 0.094 0.8874 0.8866 
0.241 3.00 3.00 0.049 0.075 0.8869 0.8888 
0.242 3.00 3.00 -0.024 0.058 0.8881 0.8889 
0.243 3.00 3.00 0.021 0.067 0.8880 0.8884 
0.244 3.00 3.00 0.085 0.081 0.8892 0.8910 
0.245 3.00 3.00 0.137 0.059 0.8886 0.8894 
0.246 3.00 3.00 0.078 0.087 0.8880 0.8893 
0.247 3.00 3.00 0.087 0.085 0.8880 0.8901 
0.248 3.00 3.00 0.153 0.062 0.8887 0.8911 
0.249 3.00 3.00 0.030 0.036 0.8877 0.8883 
0.250 3.00 3.00 0.076 0.058 0.8896 0.8850 
0.251 3.00 3.00 0.051 0.064 0.8880 0.8833 
0.252 3.00 3.00 0.010 0.054 0.8882 0.8845 
0.253 3.00 3.00 0.083 0.067 0.8879 0.8833 
0.254 3.00 3.00 0.138 0.090 0.8884 0.8836 
0.255 3.00 3.00 0.034 0.105 0.8877 0.8821 
0.256 3.00 3.00 0.027 0.064 0.8877 0.8816 
0.257 3.00 3.00 0.090 0.066 0.8872 0.8836 
0.258 3.00 3.00 0.150 0.081 0.8872 0.8821 
0.259 3.00 3.00 0.093 0.064 0.8884 0.8857 
0.260 3.00 3.00 0.022 0.054 0.8859 0.8842 
0.261 3.00 3.00 0.011 0.092 0.8875 0.8840 
0.262 3.00 3.00 0.055 0.093 0.8904 0.8857 
0.263 3.00 3.00 0.059 0.073 0.8894 0.8851 
0.264 3.00 3.00 0.081 0.061 0.8907 0.8852 
0.265 3.00 3.00 0.066 0.082 0.8889 0.8851 
0.266 3.00 3.00 0.195 0.088 0.8909 0.8881 
0.267 3.00 3.00 0.108 0.063 0.8904 0.8861 
0.268 3.00 3.00 0.112 0.073 0.8898 0.8863 
0.269 3.00 3.00 0.072 0.081 0.8898 0.8864 
0.270 3.00 3.00 0.010 0.054 0.8882 0.8882 
0.271 3.00 3.00 -0.016 0.035 0.8899 0.8874 
0.272 3.00 3.00 0.081 0.060 0.8909 0.8871 
0.273 3.00 3.00 0.170 0.078 0.8874 0.8847 
0.274 3.00 3.00 0.107 0.046 0.8903 0.8897 
0.275 3.00 3.00 0.099 0.065 0.8864 0.8889 
0.276 3.00 3.00 0.071 0.092 0.8906 0.8857 
0.277 3.00 3.00 0.019 0.092 0.8889 0.8882 
0.278 3.00 3.00 -0.035 0.058 0.8888 0.8887 
0.279 3.00 3.00 0.078 0.053 0.8884 0.8888 
0.280 3.00 3.00 0.291 0.069 0.8882 0.8876 
0.281 3.00 3.00 0.160 0.065 0.8864 0.8901 
0.282 3.00 3.00 0.105 0.055 0.8872 0.8904 
0.283 3.00 3.00 0.241 0.082 0.8884 0.8881 
0.284 3.00 3.00 0.152 0.089 0.8898 0.8891 
0.285 3.00 3.00 0.283 0.058 0.8864 0.8888 
0.286 3.00 3.00 0.074 0.045 0.8831 0.8893 
0.287 3.00 3.00 0.029 0.079 0.8863 0.8894 
0.288 3.00 3.00 0.136 0.089 0.8849 0.8920 
0.289 3.00 3.00 0.087 0.069 0.8852 0.8891 
0.290 3.00 3.00 0.051 0.082 0.8853 0.8873 
0.291 3.00 3.00 0.040 0.096 0.8861 0.8861 
0.292 3.00 3.00 0.076 0.071 0.8855 0.8863 
0.293 3.00 3.00 0.035 0.055 0.8867 0.8880 
0.294 3.00 3.00 0.042 0.066 0.8874 0.8886 
0.295 3.00 3.00 0.059 0.063 0.8854 0.8881 
0.296 3.00 3.00 0.067 0.043 0.8834 0.8886 
0.297 3.00 3.00 0.031 0.069 0.8866 0.8884 
0.298 3.00 3.00 0.033 0.099 0.8866 0.8890 
0.299 3.00 3.00 0.102 0.082 0.8856 0.8567 
0.300 3.00 3.00 0.039 0.058 0.8865 0.8894 
0.301 3.00 3.00 0.068 0.058 0.8859 0.8886 
0.302 3.00 3.00 0.072 0.079 0.8835 0.8874 
0.303 3.00 3.00 0.087 0.063 0.8848 0.8905 
0.304 3.00 3.00 0.114 0.048 0.8861 0.8912 
0.305 3.00 3.00 0.114 0.077 0.8869 0.8875 
0.306 3.00 3.00 0.048 0.087 0.8902 0.8888 
0.307 3.00 3.00 0.154 0.065 0.8897 0.8889 
0.308 3.00 3.00 0.111 0.041 0.8886 0.8865 
0.309 3.00 3.00 0.055 0.081 0.8928 0.8910 
0.310 3.00 3.00 0.079 0.082 0.8920 0.8884 
0.311 3.00 3.00 0.097 0.051 0.8914 0.8908 
0.312 3.00 3.00 0.093 0.084 0.8919 0.8906 
0.313 3.00 3.00 0.202 0.093 0.8927 0.8913 
0.314 3.00 3.00 0.109 0.060 0.8933 0.8931 
0.315 3.00 3.00 0.150 0.039 0.8939 0.8957 
0.316 3.00 3.00 0.071 0.046 0.8919 0.8935 
0.317 3.00 3.00 0.099 0.067 0.8943 0.8928 
0.318 3.00 3.00 0.119 0.054 0.8931 0.8936 
0.319 3.00 3.00 0.069 0.065 0.8945 0.8950 
0.320 3.00 3.00 0.009 0.096 0.8937 0.8958 
0.321 3.00 3.00 0.086 0.086 0.8926 0.8941 
0.322 3.00 3.00 0.211 0.059 0.8949 0.8939 
0.323 3.00 3.00 0.067 0.065 0.8921 0.8941 
0.324 3.00 3.00 0.097 0.077 0.8910 0.8925 
0.325 3.00 3.00 0.110 0.062 0.8902 0.8950 
0.326 3.00 3.00 0.043 0.055 0.8913 0.8957 
0.327 3.00 3.00 0.054 0.079 0.8917 0.8922 
0.328 3.00 3.00 0.104 0.063 0.8930 0.8934 
0.329 3.00 3.00 0.034 0.056 0.8948 0.8941 
0.330 3.00 3.00 0.053 0.046 0.8937 0.8921 
0.331 3.00 3.00 0.086 0.073 0.8957 0.8953 
0.332 3.00 3.00 0.113 0.064 0.8939 0.8944 
0.333 3.00 3.00 0.098 0.045 0.8949 0.8948 
0.334 3.00 3.00 0.071 0.076 0.8932 0.8939 
0.335 3.00 3.00 0.029 0.062 0.8936 0.8973 
0.336 3.00 3.00 0.055 0.038 0.8937 0.8967 
0.337 3.00 3.00 0.062 0.058 0.8925 0.8986 
0.338 3.00 3.00 0.048 0.061 0.8930 0.8962 
0.339 3.00 3.00 0.079 0.049 0.8933 0.8948 
0.340 3.00 3.00 0.082 0.050 0.8933 0.8958 
0.341 3.00 3.00 0.127 0.075 0.8926 0.8968 
0.342 3.00 3.00 0.071 0.092 0.8937 0.8975 
0.343 3.00 3.00 0.033 0.070 0.8926 0.8958 
0.344 3.00 3.00 0.067 0.065 0.8916 0.8963 
0.345 3.00 3.00 0.206 0.077 0.8906 0.8945 
0.346 3.00 3.00 0.143 0.063 0.8864 0.8961 
0.347 3.00 3.00 0.116 0.051 0.8852 0.8964 
0.348 3.00 3.00 0.076 0.073 0.8838 0.8993 
0.349 3.00 3.00 0.090 0.092 0.8875 0.8936 
0.350 3.00 3.00 0.101 0.063 0.8870 0.8959 
0.351 3.00 3.00 0.007 0.046 0.8890 0.8961 
0.352 3.00 3.00 0.086 0.061 0.8884 0.8970 
0.353 3.00 3.00 0.102 0.090 0.8883 0.8967 
0.354 3.00 3.00 0.045 0.077 0.8894 0.8970 
0.355 3.00 3.00 -0.005 0.069 0.8903 0.8959 
0.356 3.00 3.00 0.096 0.091 0.8883 0.8956 
0.357 3.00 3.00 0.089 0.083 0.8892 0.8977 
0.358 3.00 3.00 0.002 0.064 0.8901 0.8940 
0.359 3.00 3.00 0.055 0.050 0.8890 0.8915 
0.360 3.00 3.00 0.287 0.058 0.8881 0.8904 
0.361 3.00 3.00 0.111 0.047 0.8888 0.8909 
0.362 3.00 3.00 0.037 0.046 0.8895 0.8910 
0.363 3.00 3.00 0.083 0.085 0.8891 0.8916 
0.364 3.00 3.00 0.127 0.101 0.8889 0.8869 
0.365 3.00 3.00 0.060 0.081 0.8886 0.8905 
0.366 3.00 3.00 0.039 0.070 0.8879 0.8917 
0.367 3.00 3.00 0.085 0.040 0.8835 0.8900 
0.368 3.00 3.00 0.170 0.062 0.8877 0.8913 
0.369 3.00 3.00 0.032 0.059 0.8884 0.8917 
0.370 3.00 3.00 0.101 0.082 0.8881 0.8916 
0.371 3.00 3.00 0.129 0.084 0.8890 0.8895 
0.372 3.00 3.00 0.032 0.066 0.8889 0.8915 
0.373 3.00 3.00 0.067 0.054 0.8894 0.8925 
0.374 3.00 3.00 0.108 0.066 0.8918 0.8867 
0.375 3.00 3.00 0.048 0.070 0.8864 0.8962 
0.376 3.00 3.00 0.044 0.064 0.8927 0.8943 
0.377 3.00 3.00 0.077 0.064 0.8917 0.8939 
0.378 3.00 3.00 0.073 0.085 0.8927 0.8935 
0.379 3.00 3.00 -0.013 0.068 0.8942 0.8978 
0.380 3.00 3.00 0.001 0.056 0.8904 0.8961 
0.381 3.00 3.00 0.071 0.051 0.8919 0.8961 
0.382 3.00 3.00 0.131 0.062 0.8912 0.8962 
0.383 3.00 3.00 0.071 0.056 0.8915 0.8972 
0.384 3.00 3.00 0.040 0.061 0.8909 0.8968 
0.385 3.00 3.00 0.053 0.085 0.8927 0.8972 
0.386 3.00 3.00 0.099 0.084 0.8919 0.8962 
0.387 3.00 3.00 0.115 0.062 0.8911 0.8971 
0.388 3.00 3.00 0.051 0.056 0.8905 0.8976 
0.389 3.00 3.00 0.065 0.071 0.8908 0.8954 
0.390 3.00 3.00 0.002 0.071 0.8901 0.8987 
0.391 3.00 3.00 0.028 0.059 0.8896 0.8991 
0.392 3.00 3.00 0.077 0.084 0.8911 0.8971 
0.393 3.00 3.00 0.036 0.088 0.8921 0.8950 
0.394 3.00 3.00 0.001 0.063 0.8931 0.8973 
0.395 3.00 3.00 0.058 0.050 0.8947 0.8977 
0.396 3.00 3.00 0.116 0.079 0.8941 0.8971 
0.397 3.00 3.00 0.078 0.077 0.8947 0.8972 
0.398 3.00 3.00 0.018 0.062 0.8938 0.8981 
0.399 3.00 3.00 0.048 0.075 0.8477 0.8982 
0.400 3.00 3.00 0.128 0.077 0.8930 0.8983 
0.401 3.00 3.00 0.097 0.055 0.8949 0.8994 
0.402 3.00 3.00 0.008 0.062 0.8929 0.8963 
0.403 3.00 3.00 0.043 0.069 0.8936 0.8905 
0.404 3.00 3.00 0.063 0.064 0.8911 0.8902 
0.405 3.00 3.00 0.103 0.052 0.8932 0.8898 
0.406 3.00 3.00 0.079 0.078 0.8932 0.8892 
0.407 3.00 3.00 0.059 0.107 0.8910 0.8899 
0.408 3.00 3.00 0.025 0.106 0.8933 0.8906 
0.409 3.00 3.00 -0.026 0.072 0.8775 0.8905 
0.410 3.00 3.00 0.024 0.062 0.8924 0.8911 
0.411 3.00 3.00 0.139 0.076 0.8919 0.8893 
0.412 3.00 3.00 0.082 0.072 0.8920 0.8923 
0.413 3.00 3.00 0.029 0.062 0.8908 0.8928 
0.414 3.00 3.00 0.089 0.092 0.8918 0.8897 
0.415 3.00 3.00 0.124 0.088 0.8931 0.8914 
0.416 3.00 3.00 0.042 0.068 0.8944 0.8927 
0.417 3.00 3.00 -0.026 0.052 0.8938 0.8932 
0.418 3.00 3.00 0.047 0.092 0.8826 0.8933 
0.419 3.00 3.00 0.128 0.085 0.8839 0.8936 
0.420 3.00 3.00 0.109 0.059 0.8834 0.8952 
0.421 3.00 3.00 0.112 0.081 0.8836 0.8952 
0.422 3.00 3.00 0.090 0.087 0.8835 0.8977 
0.423 3.00 3.00 0.019 0.073 0.8846 0.8967 
0.424 3.00 3.00 -0.031 0.050 0.8819 0.9021 
0.425 3.00 3.00 0.043 0.065 0.8861 0.8985 
0.426 3.00 3.00 0.153 0.057 0.8849 0.8988 
0.427 3.00 3.00 0.083 0.051 0.8848 0.9003 
0.428 3.00 3.00 0.020 0.079 0.8853 0.8987 
0.429 3.00 3.00 0.090 0.087 0.8848 0.9001 
0.430 3.00 3.00 0.101 0.079 0.8876 0.8984 
0.431 3.00 3.00 0.019 0.052 0.8870 0.8990 
0.432 3.00 3.00 0.088 0.073 0.8885 0.8965 
0.433 3.00 3.00 0.151 0.073 0.8892 0.8986 
0.434 3.00 3.00 0.082 0.051 0.8891 0.8996 
0.435 3.00 3.00 0.020 0.050 0.8887 0.9003 
0.436 3.00 3.00 0.077 0.073 0.8904 0.8959 
0.437 3.00 3.00 0.090 0.069 0.8942 0.8979 
0.438 3.00 3.00 0.013 0.054 0.8935 0.8978 
0.439 3.00 3.00 0.004 0.064 0.8952 0.8983 
0.440 3.00 3.00 0.093 0.082 0.8942 0.8957 
0.441 3.00 3.00 0.112 0.069 0.8932 0.8948 
0.442 3.00 3.00 0.030 0.051 0.8955 0.8930 
0.443 3.00 3.00 -0.025 0.087 0.8946 0.8920 
0.444 3.00 3.00 0.014 0.084 0.8946 0.8944 
0.445 3.00 3.00 0.062 0.050 0.8957 0.8939 
0.446 3.00 3.00 0.069 0.053 0.8943 0.8982 
0.447 3.00 3.00 0.117 0.069 0.8954 0.8936 
0.448 3.00 3.00 0.131 0.059 0.8941 0.8941 
0.449 3.00 3.00 0.172 0.050 0.8942 0.8929 
0.450 3.00 3.00 0.059 0.077 0.8946 0.8950 
0.451 3.00 3.00 0.059 0.086 0.8939 0.8973 
0.452 3.00 3.00 0.099 0.084 0.8933 0.8944 
0.453 3.00 3.00 0.086 0.077 0.8937 0.8947 
0.454 3.00 3.00 0.063 0.067 0.8927 0.8932 
0.455 3.00 3.00 0.089 0.069 0.8926 0.8947 
0.456 3.00 3.00 0.116 0.060 0.8900 0.8955 
0.457 3.00 3.00 0.098 0.067 0.8903 0.8931 
0.458 3.00 3.00 0.033 0.084 0.8909 0.8941 
