%% logfile from robot Freja (4)
% Freja (4)
%  1    time 0.000 sec
%  2  3 Motor voltage [V] left, right: 3.00 3.00
%  4  5 Motor current left, right [A]: 0.135 0.132
%  6  7 Wheel velocity [m/s] left, right: 0.0000 0.0000
0.000 3.00 3.00 0.005 0.008 0.0000 0.0000 
0.001 3.00 3.00 0.277 0.026 0.0000 0.0000 
0.002 3.00 3.00 0.472 0.262 0.0000 0.0000 
0.003 3.00 3.00 0.644 0.529 0.0000 0.0000 
0.004 3.00 3.00 0.699 0.675 0.0000 0.0000 
0.005 3.00 3.00 0.721 0.765 0.0000 0.0000 
0.006 3.00 3.00 0.732 0.824 0.0000 0.0000 
0.007 3.00 3.00 0.893 0.838 0.0973 0.0000 
0.008 3.00 3.00 0.807 0.844 0.0973 0.0000 
0.009 3.00 3.00 0.871 0.836 0.0973 0.1693 
0.010 3.00 3.00 0.794 0.833 0.1827 0.1693 
0.011 3.00 3.00 0.775 0.775 0.2251 0.2246 
0.012 3.00 3.00 0.675 0.652 0.2251 0.2246 
0.013 3.00 3.00 0.851 0.674 0.2601 0.2599 
0.014 3.00 3.00 0.813 0.661 0.2860 0.2841 
0.015 3.00 3.00 0.874 0.642 0.2860 0.3097 
0.016 3.00 3.00 0.675 0.627 0.3066 0.3097 
0.017 3.00 3.00 0.768 0.595 0.3259 0.3351 
0.018 3.00 3.00 0.589 0.566 0.3515 0.3644 
0.019 3.00 3.00 0.570 0.563 0.3786 0.3817 
0.020 3.00 3.00 0.724 0.550 0.3927 0.3980 
0.021 3.00 3.00 0.627 0.495 0.4051 0.4173 
0.022 3.00 3.00 0.568 0.445 0.4244 0.4324 
0.023 3.00 3.00 0.614 0.475 0.4400 0.4382 
0.024 3.00 3.00 0.642 0.499 0.4521 0.4624 
0.025 3.00 3.00 0.640 0.501 0.4561 0.4851 
0.026 3.00 3.00 0.478 0.474 0.4693 0.4904 
0.027 3.00 3.00 0.421 0.470 0.4971 0.5002 
0.028 3.00 3.00 0.445 0.481 0.5040 0.5057 
0.029 3.00 3.00 0.361 0.430 0.5197 0.5266 
0.030 3.00 3.00 0.383 0.404 0.5340 0.5348 
0.031 3.00 3.00 0.338 0.392 0.5365 0.5470 
0.032 3.00 3.00 0.535 0.372 0.5442 0.5664 
0.033 3.00 3.00 0.604 0.346 0.5642 0.5694 
0.034 3.00 3.00 0.619 0.320 0.5668 0.5881 
0.035 3.00 3.00 0.440 0.346 0.5786 0.5897 
0.036 3.00 3.00 0.364 0.362 0.5885 0.6060 
0.037 3.00 3.00 0.448 0.343 0.5997 0.6098 
0.038 3.00 3.00 0.512 0.340 0.6147 0.6190 
0.039 3.00 3.00 0.511 0.362 0.6209 0.6282 
0.040 3.00 3.00 0.345 0.334 0.6358 0.6403 
0.041 3.00 3.00 0.282 0.305 0.6415 0.6378 
0.042 3.00 3.00 0.276 0.280 0.6457 0.6530 
0.043 3.00 3.00 0.286 0.256 0.6489 0.6568 
0.044 3.00 3.00 0.467 0.241 0.6467 0.6692 
0.045 3.00 3.00 0.345 0.229 0.6567 0.6718 
0.046 3.00 3.00 0.299 0.270 0.6647 0.6783 
0.047 3.00 3.00 0.231 0.282 0.6666 0.6852 
0.048 3.00 3.00 0.392 0.272 0.6833 0.6868 
0.049 3.00 3.00 0.259 0.293 0.6861 0.6994 
0.050 3.00 3.00 0.277 0.286 0.6924 0.6847 
0.051 3.00 3.00 0.247 0.261 0.6965 0.6636 
0.052 3.00 3.00 0.219 0.267 0.7040 0.6397 
0.053 3.00 3.00 0.195 0.268 0.7151 0.6405 
0.054 3.00 3.00 0.255 0.274 0.7159 0.6586 
0.055 3.00 3.00 0.319 0.287 0.7269 0.6565 
0.056 3.00 3.00 0.276 0.301 0.7277 0.6659 
0.057 3.00 3.00 0.184 0.276 0.7429 0.6750 
0.058 3.00 3.00 0.189 0.286 0.7435 0.6870 
0.059 3.00 3.00 0.357 0.304 0.7494 0.6889 
0.060 3.00 3.00 0.388 0.281 0.7547 0.6928 
0.061 3.00 3.00 0.412 0.270 0.7572 0.7075 
0.062 3.00 3.00 0.179 0.249 0.7685 0.7087 
0.063 3.00 3.00 0.188 0.240 0.7674 0.7199 
0.064 3.00 3.00 0.202 0.254 0.7723 0.7196 
0.065 3.00 3.00 0.118 0.256 0.7734 0.7309 
0.066 3.00 3.00 0.141 0.240 0.7697 0.7347 
0.067 3.00 3.00 0.180 0.234 0.7738 0.7335 
0.068 3.00 3.00 0.146 0.233 0.7718 0.7507 
0.069 3.00 3.00 0.189 0.194 0.7765 0.7438 
0.070 3.00 3.00 0.333 0.156 0.7859 0.7538 
0.071 3.00 3.00 0.373 0.164 0.7846 0.7539 
0.072 3.00 3.00 0.356 0.200 0.7882 0.7580 
0.073 3.00 3.00 0.364 0.210 0.7909 0.7622 
0.074 3.00 3.00 0.344 0.206 0.7979 0.7649 
0.075 3.00 3.00 0.194 0.188 0.7979 0.7732 
0.076 3.00 3.00 0.158 0.220 0.8026 0.7900 
0.077 3.00 3.00 0.123 0.209 0.8007 0.7809 
0.078 3.00 3.00 0.086 0.183 0.8086 0.7819 
0.079 3.00 3.00 0.178 0.170 0.8094 0.7874 
0.080 3.00 3.00 0.201 0.187 0.8129 0.7937 
0.081 3.00 3.00 0.138 0.199 0.8160 0.7926 
0.082 3.00 3.00 0.124 0.199 0.8217 0.8001 
0.083 3.00 3.00 0.293 0.162 0.8222 0.8017 
0.084 3.00 3.00 0.178 0.170 0.8272 0.8068 
0.085 3.00 3.00 0.158 0.185 0.8274 0.8049 
0.086 3.00 3.00 0.078 0.177 0.8321 0.8100 
0.087 3.00 3.00 0.280 0.139 0.8324 0.8133 
0.088 3.00 3.00 0.201 0.142 0.8358 0.8163 
0.089 3.00 3.00 0.076 0.162 0.8373 0.8183 
0.090 3.00 3.00 0.090 0.173 0.8400 0.8226 
0.091 3.00 3.00 0.106 0.167 0.8416 0.8231 
0.092 3.00 3.00 0.055 0.183 0.8436 0.8247 
0.093 3.00 3.00 0.089 0.172 0.8454 0.8272 
0.094 3.00 3.00 0.109 0.134 0.8465 0.8309 
0.095 3.00 3.00 0.156 0.105 0.8482 0.8311 
0.096 3.00 3.00 0.165 0.110 0.8492 0.8337 
0.097 3.00 3.00 0.083 0.107 0.8504 0.8344 
0.098 3.00 3.00 0.110 0.130 0.8513 0.8356 
0.099 3.00 3.00 0.300 0.100 0.8529 0.8381 
0.100 3.00 3.00 0.331 0.148 0.8540 0.8396 
0.101 3.00 3.00 0.285 0.145 0.8554 0.8430 
0.102 3.00 3.00 0.334 0.129 0.8532 0.8442 
0.103 3.00 3.00 0.184 0.122 0.8525 0.8456 
0.104 3.00 3.00 0.080 0.134 0.8514 0.8473 
0.105 3.00 3.00 0.084 0.148 0.8536 0.8480 
0.106 3.00 3.00 0.104 0.133 0.8544 0.8518 
0.107 3.00 3.00 0.154 0.121 0.8573 0.8533 
0.108 3.00 3.00 0.167 0.124 0.8568 0.8520 
0.109 3.00 3.00 0.116 0.112 0.8607 0.8526 
0.110 3.00 3.00 0.273 0.088 0.8578 0.8560 
0.111 3.00 3.00 0.174 0.092 0.8621 0.8579 
0.112 3.00 3.00 0.257 0.118 0.8633 0.8593 
0.113 3.00 3.00 0.097 0.129 0.8648 0.8625 
0.114 3.00 3.00 0.134 0.108 0.8672 0.8618 
0.115 3.00 3.00 0.087 0.104 0.8664 0.8628 
0.116 3.00 3.00 0.047 0.107 0.8686 0.8638 
0.117 3.00 3.00 0.071 0.091 0.8710 0.8667 
0.118 3.00 3.00 0.112 0.086 0.8700 0.8669 
0.119 3.00 3.00 0.174 0.094 0.8718 0.8698 
0.120 3.00 3.00 0.204 0.102 0.8724 0.8679 
0.121 3.00 3.00 0.149 0.103 0.8730 0.8707 
0.122 3.00 3.00 0.142 0.097 0.8737 0.8700 
0.123 3.00 3.00 0.090 0.107 0.8739 0.8715 
0.124 3.00 3.00 0.224 0.114 0.8774 0.8748 
0.125 3.00 3.00 0.284 0.095 0.8791 0.8742 
0.126 3.00 3.00 0.144 0.091 0.8837 0.8761 
0.127 3.00 3.00 0.219 0.114 0.8814 0.8743 
0.128 3.00 3.00 0.266 0.109 0.8860 0.8768 
0.129 3.00 3.00 0.146 0.096 0.8855 0.8780 
0.130 3.00 3.00 0.058 0.107 0.8854 0.8797 
0.131 3.00 3.00 0.063 0.114 0.8872 0.8774 
0.132 3.00 3.00 0.092 0.095 0.8867 0.8793 
0.133 3.00 3.00 0.246 0.095 0.8882 0.8809 
0.134 3.00 3.00 0.102 0.097 0.8887 0.8834 
0.135 3.00 3.00 0.067 0.123 0.8883 0.8812 
0.136 3.00 3.00 0.065 0.099 0.8902 0.8820 
0.137 3.00 3.00 0.252 0.084 0.8886 0.8833 
0.138 3.00 3.00 0.139 0.098 0.8896 0.8835 
0.139 3.00 3.00 0.210 0.088 0.8886 0.8862 
0.140 3.00 3.00 0.116 0.068 0.8879 0.8857 
0.141 3.00 3.00 0.082 0.074 0.8911 0.8880 
0.142 3.00 3.00 0.189 0.118 0.8908 0.8864 
0.143 3.00 3.00 0.139 0.122 0.8906 0.8874 
0.144 3.00 3.00 0.088 0.110 0.8899 0.8875 
0.145 3.00 3.00 0.108 0.137 0.8892 0.8887 
0.146 3.00 3.00 0.200 0.127 0.8903 0.8892 
0.147 3.00 3.00 0.191 0.109 0.8913 0.8897 
0.148 3.00 3.00 0.250 0.091 0.8907 0.8900 
0.149 3.00 3.00 0.263 0.102 0.8863 0.8885 
0.150 3.00 3.00 0.123 0.081 0.8859 0.8915 
0.151 3.00 3.00 0.094 0.070 0.8843 0.8915 
0.152 3.00 3.00 0.271 0.088 0.8849 0.8930 
0.153 3.00 3.00 0.118 0.110 0.8859 0.8896 
0.154 3.00 3.00 0.163 0.110 0.8855 0.8918 
0.155 3.00 3.00 0.292 0.081 0.8866 0.8936 
0.156 3.00 3.00 0.105 0.091 0.8860 0.8947 
0.157 3.00 3.00 0.181 0.108 0.8876 0.8941 
0.158 3.00 3.00 0.280 0.083 0.8895 0.8933 
0.159 3.00 3.00 0.172 0.080 0.8880 0.8937 
0.160 3.00 3.00 0.235 0.076 0.8895 0.8938 
0.161 3.00 3.00 0.097 0.046 0.8943 0.8958 
0.162 3.00 3.00 0.086 0.050 0.8943 0.8905 
0.163 3.00 3.00 0.222 0.066 0.8961 0.8959 
0.164 3.00 3.00 0.059 0.099 0.8954 0.8926 
0.165 3.00 3.00 0.217 0.110 0.8958 0.8939 
0.166 3.00 3.00 0.162 0.099 0.8962 0.8936 
0.167 3.00 3.00 0.257 0.117 0.8946 0.8945 
0.168 3.00 3.00 0.101 0.111 0.8954 0.8963 
0.169 3.00 3.00 0.261 0.069 0.8962 0.8948 
0.170 3.00 3.00 0.297 0.065 0.8999 0.8946 
0.171 3.00 3.00 0.229 0.080 0.9002 0.8930 
0.172 3.00 3.00 0.084 0.101 0.8992 0.8952 
0.173 3.00 3.00 0.125 0.096 0.9008 0.8953 
0.174 3.00 3.00 0.081 0.098 0.8955 0.8909 
0.175 3.00 3.00 0.192 0.110 0.8975 0.8939 
0.176 3.00 3.00 0.116 0.074 0.8994 0.8943 
0.177 3.00 3.00 0.265 0.058 0.8998 0.8962 
0.178 3.00 3.00 0.084 0.085 0.9001 0.8972 
0.179 3.00 3.00 0.185 0.109 0.8997 0.8971 
0.180 3.00 3.00 0.097 0.097 0.8990 0.8941 
0.181 3.00 3.00 0.103 0.085 0.9008 0.8936 
0.182 3.00 3.00 0.056 0.091 0.8991 0.8932 
0.183 3.00 3.00 0.101 0.062 0.9000 0.8942 
0.184 3.00 3.00 0.179 0.029 0.8992 0.8953 
0.185 3.00 3.00 0.084 0.058 0.8997 0.8943 
0.186 3.00 3.00 0.158 0.102 0.8986 0.8947 
0.187 3.00 3.00 0.114 0.091 0.8988 0.8960 
0.188 3.00 3.00 0.158 0.093 0.8979 0.8971 
0.189 3.00 3.00 0.082 0.110 0.8946 0.8967 
0.190 3.00 3.00 0.043 0.112 0.8991 0.8966 
0.191 3.00 3.00 0.202 0.091 0.8998 0.8974 
0.192 3.00 3.00 0.253 0.088 0.9010 0.8979 
0.193 3.00 3.00 0.087 0.084 0.9008 0.8959 
0.194 3.00 3.00 0.086 0.085 0.9031 0.9004 
0.195 3.00 3.00 0.217 0.066 0.9034 0.9013 
0.196 3.00 3.00 0.083 0.091 0.9026 0.8979 
0.197 3.00 3.00 0.060 0.091 0.9047 0.8987 
0.198 3.00 3.00 0.139 0.068 0.9032 0.9003 
0.199 3.00 3.00 0.075 0.048 0.9038 0.9006 
0.200 3.00 3.00 0.187 0.075 0.8996 0.8999 
0.201 3.00 3.00 0.180 0.087 0.8973 0.9039 
0.202 3.00 3.00 0.293 0.061 0.8952 0.8999 
0.203 3.00 3.00 0.142 0.080 0.8921 0.9012 
0.204 3.00 3.00 0.231 0.050 0.8946 0.9009 
0.205 3.00 3.00 0.135 0.043 0.8952 0.9015 
0.206 3.00 3.00 0.082 0.038 0.8945 0.8996 
0.207 3.00 3.00 0.042 0.074 0.8945 0.9010 
0.208 3.00 3.00 0.051 0.080 0.8949 0.9014 
0.209 3.00 3.00 0.137 0.091 0.8938 0.9007 
0.210 3.00 3.00 0.071 0.099 0.8945 0.9022 
0.211 3.00 3.00 0.085 0.113 0.8941 0.9036 
0.212 3.00 3.00 0.109 0.088 0.8943 0.9023 
0.213 3.00 3.00 0.250 0.077 0.8992 0.9021 
0.214 3.00 3.00 0.082 0.107 0.8976 0.9021 
0.215 3.00 3.00 0.048 0.110 0.8996 0.9031 
0.216 3.00 3.00 0.054 0.079 0.8988 0.9038 
0.217 3.00 3.00 0.265 0.072 0.8989 0.9051 
0.218 3.00 3.00 0.097 0.088 0.8976 0.8997 
0.219 3.00 3.00 0.236 0.088 0.8993 0.9019 
0.220 3.00 3.00 0.130 0.075 0.9001 0.9034 
0.221 3.00 3.00 0.215 0.076 0.9006 0.9042 
0.222 3.00 3.00 0.095 0.094 0.9009 0.9040 
0.223 3.00 3.00 0.076 0.087 0.9023 0.9014 
0.224 3.00 3.00 0.245 0.069 0.9013 0.9058 
0.225 3.00 3.00 0.138 0.089 0.9025 0.9033 
0.226 3.00 3.00 0.063 0.077 0.9015 0.9053 
0.227 3.00 3.00 0.267 0.062 0.9006 0.9037 
0.228 3.00 3.00 0.266 0.068 0.9048 0.9065 
0.229 3.00 3.00 0.075 0.076 0.9021 0.9032 
0.230 3.00 3.00 0.259 0.068 0.9028 0.9046 
0.231 3.00 3.00 0.132 0.062 0.9003 0.9033 
0.232 3.00 3.00 0.171 0.090 0.8992 0.9038 
0.233 3.00 3.00 0.089 0.090 0.9007 0.9035 
0.234 3.00 3.00 0.060 0.081 0.9016 0.9040 
0.235 3.00 3.00 0.258 0.072 0.9060 0.9044 
0.236 3.00 3.00 0.219 0.100 0.9053 0.9039 
0.237 3.00 3.00 0.242 0.099 0.9039 0.9063 
0.238 3.00 3.00 0.172 0.086 0.9055 0.9072 
0.239 3.00 3.00 0.244 0.103 0.9042 0.9043 
0.240 3.00 3.00 0.082 0.123 0.9030 0.9027 
0.241 3.00 3.00 0.231 0.100 0.9037 0.9048 
0.242 3.00 3.00 0.165 0.076 0.9048 0.9059 
0.243 3.00 3.00 0.193 0.113 0.9042 0.9055 
0.244 3.00 3.00 0.189 0.113 0.9045 0.9085 
0.245 3.00 3.00 0.183 0.083 0.9028 0.9043 
0.246 3.00 3.00 0.106 0.078 0.9046 0.9065 
0.247 3.00 3.00 0.014 0.102 0.9027 0.9053 
0.248 3.00 3.00 0.247 0.075 0.9045 0.9063 
0.249 3.00 3.00 0.099 0.061 0.9025 0.9046 
0.250 3.00 3.00 0.196 0.073 0.9027 0.9032 
0.251 3.00 3.00 0.185 0.091 0.9016 0.9033 
0.252 3.00 3.00 0.092 0.073 0.9012 0.9057 
0.253 3.00 3.00 0.128 0.081 0.9022 0.9053 
0.254 3.00 3.00 0.090 0.076 0.8957 0.9053 
0.255 3.00 3.00 0.210 0.087 0.8940 0.9058 
0.256 3.00 3.00 0.304 0.086 0.8941 0.9060 
0.257 3.00 3.00 0.273 0.106 0.8952 0.9062 
0.258 3.00 3.00 0.032 0.122 0.8911 0.9049 
0.259 3.00 3.00 0.026 0.104 0.8967 0.9079 
0.260 3.00 3.00 0.078 0.079 0.8977 0.9074 
0.261 3.00 3.00 0.048 0.101 0.8966 0.9039 
0.262 3.00 3.00 0.110 0.075 0.8977 0.9057 
0.263 3.00 3.00 0.048 0.042 0.8982 0.9067 
0.264 3.00 3.00 0.209 0.073 0.8985 0.9078 
0.265 3.00 3.00 0.086 0.107 0.8970 0.9070 
0.266 3.00 3.00 0.038 0.106 0.8983 0.9064 
0.267 3.00 3.00 0.048 0.091 0.8954 0.9070 
0.268 3.00 3.00 0.018 0.106 0.8979 0.9038 
0.269 3.00 3.00 0.150 0.076 0.8980 0.9091 
0.270 3.00 3.00 0.253 0.031 0.8986 0.9065 
0.271 3.00 3.00 0.132 0.052 0.8975 0.9101 
0.272 3.00 3.00 0.096 0.062 0.8902 0.9055 
0.273 3.00 3.00 0.059 0.083 0.8980 0.9064 
0.274 3.00 3.00 0.117 0.095 0.8966 0.9056 
0.275 3.00 3.00 0.265 0.105 0.8981 0.9047 
0.276 3.00 3.00 0.048 0.121 0.8965 0.9057 
0.277 3.00 3.00 0.196 0.103 0.8979 0.9063 
0.278 3.00 3.00 0.078 0.094 0.9005 0.9074 
0.279 3.00 3.00 0.025 0.104 0.9006 0.9057 
0.280 3.00 3.00 0.181 0.108 0.9023 0.9086 
0.281 3.00 3.00 0.257 0.082 0.9010 0.9093 
0.282 3.00 3.00 0.126 0.091 0.8979 0.9066 
0.283 3.00 3.00 0.105 0.102 0.9022 0.9057 
0.284 3.00 3.00 0.069 0.042 0.9013 0.9070 
0.285 3.00 3.00 0.096 0.042 0.9020 0.9083 
0.286 3.00 3.00 0.085 0.077 0.9018 0.9077 
0.287 3.00 3.00 0.159 0.098 0.9022 0.9107 
0.288 3.00 3.00 0.279 0.074 0.9037 0.9086 
0.289 3.00 3.00 0.104 0.080 0.8995 0.9073 
0.290 3.00 3.00 0.056 0.076 0.9024 0.9072 
0.291 3.00 3.00 0.226 0.053 0.9027 0.9084 
0.292 3.00 3.00 0.082 0.037 0.9011 0.9069 
0.293 3.00 3.00 0.088 0.068 0.9033 0.9047 
0.294 3.00 3.00 0.070 0.060 0.9008 0.9085 
0.295 3.00 3.00 0.003 0.076 0.9006 0.9078 
0.296 3.00 3.00 0.210 0.096 0.8993 0.9078 
0.297 3.00 3.00 0.086 0.121 0.8990 0.9073 
0.298 3.00 3.00 0.176 0.100 0.9001 0.9082 
0.299 3.00 3.00 0.287 0.061 0.9006 0.9075 
0.300 3.00 3.00 0.081 0.068 0.9034 0.9080 
0.301 3.00 3.00 0.169 0.080 0.9046 0.9072 
0.302 3.00 3.00 0.063 0.075 0.9034 0.9094 
0.303 3.00 3.00 0.069 0.080 0.9042 0.9104 
0.304 3.00 3.00 0.154 0.118 0.9037 0.9056 
0.305 3.00 3.00 0.038 0.104 0.9055 0.9067 
0.306 3.00 3.00 0.252 0.080 0.9030 0.9083 
0.307 3.00 3.00 0.193 0.090 0.9040 0.9090 
0.308 3.00 3.00 0.215 0.107 0.9043 0.9088 
0.309 3.00 3.00 0.089 0.093 0.9031 0.9044 
0.310 3.00 3.00 0.242 0.058 0.9028 0.9102 
0.311 3.00 3.00 0.113 0.088 0.9043 0.9088 
0.312 3.00 3.00 0.063 0.074 0.9027 0.9100 
0.313 3.00 3.00 0.114 0.046 0.9036 0.9081 
0.314 3.00 3.00 0.059 0.042 0.9025 0.9105 
0.315 3.00 3.00 0.014 0.076 0.9031 0.9068 
0.316 3.00 3.00 -0.023 0.085 0.9017 0.9080 
0.317 3.00 3.00 0.205 0.075 0.9014 0.9074 
0.318 3.00 3.00 0.062 0.112 0.9030 0.9077 
0.319 3.00 3.00 0.109 0.114 0.9009 0.9071 
0.320 3.00 3.00 0.215 0.080 0.9021 0.9070 
0.321 3.00 3.00 0.157 0.076 0.9034 0.9086 
0.322 3.00 3.00 0.044 0.059 0.9043 0.9068 
0.323 3.00 3.00 0.023 0.070 0.9032 0.9106 
0.324 3.00 3.00 0.029 0.053 0.8993 0.9109 
0.325 3.00 3.00 0.072 0.087 0.8979 0.9075 
0.326 3.00 3.00 0.010 0.102 0.8974 0.9068 
0.327 3.00 3.00 -0.005 0.072 0.8971 0.9077 
0.328 3.00 3.00 0.150 0.060 0.8981 0.9086 
0.329 3.00 3.00 0.010 0.065 0.8984 0.9083 
0.330 3.00 3.00 0.023 0.101 0.8971 0.9110 
0.331 3.00 3.00 0.062 0.070 0.8996 0.9086 
0.332 3.00 3.00 0.055 0.086 0.8972 0.9081 
0.333 3.00 3.00 -0.018 0.089 0.8983 0.9074 
0.334 3.00 3.00 0.008 0.064 0.8974 0.9058 
0.335 3.00 3.00 0.195 0.061 0.8983 0.9080 
0.336 3.00 3.00 0.075 0.084 0.8988 0.9075 
0.337 3.00 3.00 0.029 0.087 0.8984 0.9086 
0.338 3.00 3.00 -0.007 0.065 0.8976 0.9089 
0.339 3.00 3.00 0.218 0.076 0.8972 0.9085 
0.340 3.00 3.00 0.081 0.088 0.8997 0.9099 
0.341 3.00 3.00 0.002 0.078 0.8972 0.9088 
0.342 3.00 3.00 0.073 0.065 0.9003 0.9084 
0.343 3.00 3.00 0.257 0.091 0.9048 0.9094 
0.344 3.00 3.00 0.061 0.114 0.9066 0.9093 
0.345 3.00 3.00 0.059 0.102 0.9054 0.9097 
0.346 3.00 3.00 0.263 0.084 0.9074 0.9109 
0.347 3.00 3.00 0.082 0.110 0.9068 0.9060 
0.348 3.00 3.00 -0.012 0.095 0.9074 0.9079 
0.349 3.00 3.00 0.039 0.063 0.9064 0.9087 
0.350 3.00 3.00 0.017 0.084 0.9058 0.9094 
0.351 3.00 3.00 0.049 0.122 0.9063 0.9045 
0.352 3.00 3.00 0.169 0.114 0.9061 0.9087 
0.353 3.00 3.00 0.105 0.084 0.9076 0.9088 
0.354 3.00 3.00 0.262 0.091 0.9065 0.9080 
0.355 3.00 3.00 0.292 0.020 0.9048 0.9097 
0.356 3.00 3.00 0.263 0.001 0.9056 0.9086 
0.357 3.00 3.00 0.278 0.041 0.9044 0.9063 
0.358 3.00 3.00 0.110 0.105 0.9044 0.9072 
0.359 3.00 3.00 0.022 0.110 0.9027 0.9097 
0.360 3.00 3.00 0.017 0.100 0.9031 0.9084 
0.361 3.00 3.00 0.100 0.128 0.8988 0.9085 
0.362 3.00 3.00 0.052 0.110 0.9025 0.9078 
0.363 3.00 3.00 0.075 0.076 0.9035 0.9074 
0.364 3.00 3.00 0.233 0.077 0.9040 0.9065 
0.365 3.00 3.00 0.068 0.103 0.9053 0.9079 
0.366 3.00 3.00 0.075 0.098 0.9064 0.9105 
0.367 3.00 3.00 0.064 0.050 0.9064 0.9101 
0.368 3.00 3.00 0.084 0.088 0.9038 0.9043 
0.369 3.00 3.00 0.040 0.087 0.9009 0.9081 
0.370 3.00 3.00 0.140 0.075 0.9021 0.9085 
0.371 3.00 3.00 0.259 0.072 0.9027 0.9091 
0.372 3.00 3.00 0.075 0.107 0.9022 0.9084 
0.373 3.00 3.00 0.187 0.113 0.8991 0.9097 
0.374 3.00 3.00 0.254 0.091 0.9019 0.9082 
0.375 3.00 3.00 0.280 0.106 0.8996 0.9085 
0.376 3.00 3.00 0.196 0.088 0.9021 0.9055 
0.377 3.00 3.00 0.085 0.048 0.9022 0.9089 
0.378 3.00 3.00 0.069 0.041 0.8993 0.9106 
0.379 3.00 3.00 0.222 0.065 0.9016 0.9081 
0.380 3.00 3.00 0.083 0.093 0.8895 0.9090 
0.381 3.00 3.00 0.216 0.074 0.9005 0.9095 
0.382 3.00 3.00 0.279 0.103 0.8996 0.9085 
0.383 3.00 3.00 0.154 0.129 0.9003 0.9110 
0.384 3.00 3.00 0.069 0.090 0.8989 0.9094 
0.385 3.00 3.00 0.059 0.069 0.8980 0.9085 
0.386 3.00 3.00 0.235 0.088 0.9036 0.9082 
0.387 3.00 3.00 0.036 0.095 0.9027 0.9093 
0.388 3.00 3.00 0.198 0.069 0.9036 0.9099 
0.389 3.00 3.00 0.128 0.083 0.9048 0.9115 
0.390 3.00 3.00 0.225 0.095 0.9033 0.9061 
0.391 3.00 3.00 0.096 0.076 0.9036 0.9087 
0.392 3.00 3.00 0.132 0.061 0.8996 0.9092 
0.393 3.00 3.00 0.223 0.064 0.9045 0.9096 
0.394 3.00 3.00 0.063 0.100 0.9043 0.9093 
0.395 3.00 3.00 0.014 0.085 0.9032 0.9089 
0.396 3.00 3.00 0.060 0.084 0.9022 0.9079 
0.397 3.00 3.00 0.219 0.099 0.9035 0.9070 
0.398 3.00 3.00 0.109 0.076 0.9024 0.9097 
0.399 3.00 3.00 0.043 0.051 0.9037 0.9086 
0.400 3.00 3.00 0.058 0.076 0.9021 0.9070 
0.401 3.00 3.00 0.073 0.074 0.9033 0.9055 
0.402 3.00 3.00 0.209 0.077 0.9028 0.9106 
0.403 3.00 3.00 0.272 0.081 0.9023 0.9071 
0.404 3.00 3.00 0.149 0.113 0.9009 0.9102 
0.405 3.00 3.00 0.094 0.104 0.9005 0.9071 
0.406 3.00 3.00 0.087 0.080 0.9017 0.9086 
0.407 3.00 3.00 0.132 0.062 0.9034 0.9074 
0.408 3.00 3.00 0.239 0.100 0.9038 0.9097 
0.409 3.00 3.00 0.209 0.100 0.9057 0.9124 
0.410 3.00 3.00 0.085 0.074 0.9013 0.9120 
0.411 3.00 3.00 0.109 0.106 0.9070 0.9088 
0.412 3.00 3.00 0.155 0.087 0.9064 0.9095 
0.413 3.00 3.00 0.071 0.050 0.9080 0.9094 
0.414 3.00 3.00 0.223 0.059 0.9062 0.9096 
0.415 3.00 3.00 0.265 0.090 0.9074 0.9105 
0.416 3.00 3.00 0.098 0.083 0.9069 0.9078 
0.417 3.00 3.00 0.204 0.069 0.9082 0.9101 
0.418 3.00 3.00 0.265 0.088 0.9041 0.9096 
0.419 3.00 3.00 0.179 0.086 0.9059 0.9100 
0.420 3.00 3.00 0.040 0.049 0.9064 0.9105 
0.421 3.00 3.00 0.237 0.053 0.9068 0.9126 
0.422 3.00 3.00 0.274 0.082 0.9057 0.9092 
0.423 3.00 3.00 0.236 0.062 0.9064 0.9099 
0.424 3.00 3.00 0.242 0.067 0.9054 0.9093 
0.425 3.00 3.00 0.107 0.114 0.9043 0.9102 
0.426 3.00 3.00 0.089 0.122 0.9051 0.9109 
0.427 3.00 3.00 0.208 0.091 0.9034 0.9110 
0.428 3.00 3.00 0.136 0.076 0.9042 0.9113 
0.429 3.00 3.00 0.100 0.088 0.9072 0.9088 
0.430 3.00 3.00 0.195 0.084 0.9065 0.9088 
0.431 3.00 3.00 0.091 0.076 0.9082 0.9122 
0.432 3.00 3.00 0.122 0.083 0.9071 0.9085 
0.433 3.00 3.00 0.254 0.076 0.9029 0.9093 
0.434 3.00 3.00 0.260 0.076 0.9082 0.9106 
0.435 3.00 3.00 0.094 0.061 0.9064 0.9108 
0.436 3.00 3.00 0.122 0.091 0.9067 0.9115 
0.437 3.00 3.00 0.030 0.112 0.8968 0.9139 
0.438 3.00 3.00 0.167 0.103 0.8985 0.9108 
0.439 3.00 3.00 0.280 0.107 0.9004 0.9108 
0.440 3.00 3.00 0.122 0.101 0.8975 0.9095 
0.441 3.00 3.00 0.231 0.058 0.8997 0.9107 
0.442 3.00 3.00 0.092 0.038 0.8986 0.9097 
0.443 3.00 3.00 0.080 0.072 0.8990 0.9050 
0.444 3.00 3.00 0.088 0.084 0.8991 0.9103 
0.445 3.00 3.00 0.174 0.083 0.8957 0.9099 
0.446 3.00 3.00 0.147 0.092 0.8997 0.9099 
0.447 3.00 3.00 0.191 0.111 0.8978 0.9112 
0.448 3.00 3.00 0.241 0.099 0.8966 0.8934 
0.449 3.00 3.00 0.085 0.076 0.8981 0.9105 
0.450 3.00 3.00 0.076 0.080 0.8986 0.9104 
0.451 3.00 3.00 0.107 0.107 0.8977 0.9067 
0.452 3.00 3.00 0.201 0.095 0.9022 0.9131 
0.453 3.00 3.00 0.066 0.087 0.9016 0.9121 
0.454 3.00 3.00 0.087 0.120 0.9028 0.9073 
0.455 3.00 3.00 0.083 0.098 0.8991 0.9097 
0.456 3.00 3.00 0.055 0.073 0.9035 0.9100 
0.457 3.00 3.00 0.221 0.078 0.9012 0.9123 
0.458 3.00 3.00 0.294 0.101 0.9022 0.9112 
